File: examples/2.3-LSV 1 M KOH OER OCP-0.1975 iR-95%-1.3Ω (0~0.8V) NiCo2O4.txt
Sept. 7, 2022   15:39:14
Linear Sweep Voltammetry
File: f:\2-Data Source:  Experiment
Instrument Model:  CHI760E
Header:
Note:

Init E (V) = 0
Final E (V) = 0.8
Scan Rate (V/s) = 0.005
Sample Interval (V) = 0.001
Quiet Time (sec) = 2
Sensitivity (A/V) = 0.1
Comp R (ohm) = 1.2

Potential/V, Current/A

0.000, -4.427e-3
0.003, -4.411e-3
0.006, -4.411e-3
0.009, -4.403e-3
0.012, -4.401e-3
0.015, -4.406e-3
0.018, -4.406e-3
0.021, -4.410e-3
0.024, -4.405e-3
0.027, -4.398e-3
0.030, -4.402e-3
0.033, -4.404e-3
0.036, -4.406e-3
0.039, -4.411e-3
0.042, -4.407e-3
0.045, -4.406e-3
0.048, -4.407e-3
0.051, -4.406e-3
0.054, -4.406e-3
0.057, -4.409e-3
0.060, -4.403e-3
0.063, -4.404e-3
0.066, -4.408e-3
0.069, -4.408e-3
0.072, -4.404e-3
0.075, -4.406e-3
0.078, -4.405e-3
0.081, -4.403e-3
0.084, -4.405e-3
0.087, -4.398e-3
0.090, -4.407e-3
0.093, -4.406e-3
0.096, -4.410e-3
0.099, -4.409e-3
0.102, -4.409e-3
0.105, -4.407e-3
0.108, -4.410e-3
0.111, -4.403e-3
0.114, -4.406e-3
0.117, -4.408e-3
0.120, -4.399e-3
0.123, -4.400e-3
0.126, -4.412e-3
0.129, -4.400e-3
0.132, -4.403e-3
0.135, -4.408e-3
0.138, -4.399e-3
0.141, -4.401e-3
0.144, -4.408e-3
0.147, -4.406e-3
0.150, -4.406e-3
0.153, -4.405e-3
0.156, -4.397e-3
0.159, -4.396e-3
0.162, -4.400e-3
0.165, -4.403e-3
0.168, -4.405e-3
0.171, -4.401e-3
0.174, -4.404e-3
0.177, -4.395e-3
0.180, -4.398e-3
0.183, -4.399e-3
0.186, -4.403e-3
0.189, -4.404e-3
0.192, -4.399e-3
0.195, -4.400e-3
0.198, -4.395e-3
0.201, -4.386e-3
0.204, -4.399e-3
0.207, -4.396e-3
0.210, -4.396e-3
0.213, -4.395e-3
0.216, -4.393e-3
0.219, -4.390e-3
0.222, -4.387e-3
0.225, -4.378e-3
0.228, -4.384e-3
0.231, -4.393e-3
0.234, -4.389e-3
0.237, -4.383e-3
0.240, -4.388e-3
0.243, -4.385e-3
0.246, -4.382e-3
0.249, -4.387e-3
0.252, -4.375e-3
0.255, -4.376e-3
0.258, -4.378e-3
0.261, -4.384e-3
0.264, -4.377e-3
0.267, -4.371e-3
0.270, -4.376e-3
0.273, -4.362e-3
0.276, -4.361e-3
0.279, -4.370e-3
0.282, -4.368e-3
0.285, -4.356e-3
0.288, -4.363e-3
0.291, -4.350e-3
0.294, -4.364e-3
0.297, -4.361e-3
0.300, -4.356e-3
0.303, -4.358e-3
0.306, -4.354e-3
0.309, -4.352e-3
0.312, -4.348e-3
0.315, -4.338e-3
0.318, -4.341e-3
0.321, -4.346e-3
0.324, -4.344e-3
0.327, -4.344e-3
0.330, -4.340e-3
0.333, -4.328e-3
0.336, -4.311e-3
0.339, -4.284e-3
0.342, -4.244e-3
0.345, -4.135e-3
0.348, -4.094e-3
0.351, -4.060e-3
0.354, -4.028e-3
0.357, -3.995e-3
0.360, -3.951e-3
0.363, -3.921e-3
0.366, -3.874e-3
0.369, -3.845e-3
0.372, -3.808e-3
0.375, -3.769e-3
0.378, -3.758e-3
0.381, -3.736e-3
0.384, -3.713e-3
0.387, -3.720e-3
0.390, -3.765e-3
0.393, -3.827e-3
0.396, -3.851e-3
0.399, -3.818e-3
0.402, -3.782e-3
0.405, -3.757e-3
0.408, -3.704e-3
0.411, -3.637e-3
0.414, -3.550e-3
0.417, -3.437e-3
0.420, -3.310e-3
0.423, -3.135e-3
0.426, -2.949e-3
0.429, -2.863e-3
0.432, -2.673e-3
0.435, -2.536e-3
0.438, -2.390e-3
0.441, -2.297e-3
0.444, -2.219e-3
0.447, -2.165e-3
0.450, -2.134e-3
0.453, -2.150e-3
0.456, -2.190e-3
0.459, -2.219e-3
0.462, -2.303e-3
0.465, -2.407e-3
0.468, -2.513e-3
0.471, -2.632e-3
0.474, -2.782e-3
0.477, -2.912e-3
0.480, -3.040e-3
0.483, -3.123e-3
0.486, -3.182e-3
0.489, -3.236e-3
0.492, -3.275e-3
0.495, -3.332e-3
0.498, -3.365e-3
0.501, -3.411e-3
0.504, -3.445e-3
0.507, -3.463e-3
0.510, -3.478e-3
0.513, -3.494e-3
0.516, -3.505e-3
0.519, -3.510e-3
0.522, -3.514e-3
0.525, -3.529e-3
0.528, -3.548e-3
0.531, -3.560e-3
0.534, -3.574e-3
0.537, -3.586e-3
0.540, -3.606e-3
0.543, -3.625e-3
0.546, -3.633e-3
0.549, -3.649e-3
0.552, -3.659e-3
0.555, -3.674e-3
0.558, -3.671e-3
0.561, -3.659e-3
0.564, -3.657e-3
0.567, -3.655e-3
0.570, -3.641e-3
0.573, -3.611e-3
0.576, -3.579e-3
0.579, -3.552e-3
0.582, -3.500e-3
0.585, -3.454e-3
0.588, -3.397e-3
0.591, -3.305e-3
0.594, -3.238e-3
0.597, -3.154e-3
0.600, -3.056e-3
0.603, -2.968e-3
0.606, -2.888e-3
0.609, -2.793e-3
0.612, -2.673e-3
0.615, -2.518e-3
0.618, -2.392e-3
0.621, -2.252e-3
0.624, -2.073e-3
0.627, -1.877e-3
0.630, -1.674e-3
0.633, -1.435e-3
0.636, -1.182e-3
0.639, -9.009e-4
0.642, -5.813e-4
0.645, -2.376e-4
0.648, 1.480e-4
0.651, 5.525e-4
0.654, 1.027e-3
0.657, 1.524e-3
0.660, 2.040e-3
0.663, 2.639e-3
0.666, 3.288e-3
0.669, 3.972e-3
0.672, 4.729e-3
0.675, 5.537e-3
0.678, 6.410e-3
0.681, 7.348e-3
0.684, 8.358e-3
0.687, 9.409e-3
0.690, 1.055e-2
0.693, 1.178e-2
0.696, 1.303e-2
0.699, 1.433e-2
0.702, 1.571e-2
0.705, 1.716e-2
0.708, 1.868e-2
0.711, 2.019e-2
0.714, 2.184e-2
0.717, 2.354e-2
0.720, 2.529e-2
0.723, 2.705e-2
0.726, 2.903e-2
0.729, 3.086e-2
0.732, 3.293e-2
0.735, 3.492e-2
0.738, 3.716e-2
0.741, 3.940e-2
0.744, 4.164e-2
0.747, 4.402e-2
0.750, 4.637e-2
0.753, 4.853e-2
0.756, 5.100e-2
0.759, 5.374e-2
0.762, 5.663e-2
0.765, 5.901e-2
0.768, 6.173e-2
0.771, 6.388e-2
0.774, 6.659e-2
0.777, 6.913e-2
0.780, 7.162e-2
0.783, 7.436e-2
0.786, 7.737e-2
0.789, 7.975e-2
0.792, 8.178e-2
0.795, 8.422e-2
0.798, 8.673e-2
0.799, 8.791e-2